Name           :	.2mgmlPOPG_O1	
User           :	Isaac	
Date           :	7/29/2014	

Probe1         :	Wilhelmy	
Perimeter      : 	39.240	

Probe2         :	Wilhelmy	
Perimeter      : 	39.240	

Trough         :	Extra Small	
Width          :	50.0	
Area           :	7035.0	
Symmetric comp :	True	

Subphase       :	Water	
Surface tension:	72.80	
pH             :	7.00	
Temperature    :	19.5	

Addition       :		
Concentration  :		
Unit           :	Unknown         	

Substance1     :	POPG	
MW             :	771.0	
Concentration  :	0.200	
Unit           :	mg/ml           	
Volume         :	0.00	

Substance2     :		
MW             : 		
Concentration  : 		
Unit           :	Unknown         	
Volume         : 		

Substrate      :		
Height         : 		
Shape          : 	Rectangle       	
Width          :		
Thickness      :		


t[s]	Bpos	Bspd	A[cm²]	Mma[Å²]	P1[mN/m]	P2[mN/m]	T[°C]	SP[V]	pH	AD[V]
185.15	30.555	13.510	39.79		10.919	10.983	104.31		-1.22	0.000
185.41	30.621	13.498	39.73		10.948	10.995	116.26		-1.22	0.000
185.70	30.687	13.438	39.66		10.985	11.008	140.52		-1.22	0.000
185.97	30.732	13.353	39.62		11.023	11.034	151.20		-1.22	0.000
186.24	30.800	13.233	39.55		11.063	11.073	160.69		-1.22	0.000
186.52	30.864	13.077	39.49		11.096	11.108	131.27		-1.22	0.000
186.79	30.908	12.885	39.44		11.134	11.123	117.11		-1.22	0.000
187.06	30.973	12.656	39.38		11.171	11.158	99.77		-1.22	0.000
187.33	31.033	12.404	39.32		11.189	11.191	90.48		-1.22	0.000
187.61	31.095	12.103	39.26		11.223	11.229	73.46		-1.22	0.000
187.88	31.136	11.779	39.21		11.255	11.263	51.19		-1.22	0.000
188.16	31.194	11.418	39.16		11.285	11.297	-16.90		-1.22	0.000
188.43	31.249	11.034	39.10		11.314	11.329	-64.41		-1.22	0.000
188.70	31.305	10.625	39.04		11.342	11.362	-165.86		-1.22	0.000
188.98	31.338	10.180	39.01		11.369	11.391	-209.30		-1.22	0.000
189.26	31.388	9.700	38.96		11.392	11.422	-244.40		-1.22	0.000
189.54	31.435	9.195	38.92		11.413	11.449	-251.56		-1.22	0.000
189.82	31.478	8.678	38.87		11.433	11.468	-295.14		-1.22	0.000
190.10	31.508	8.113	38.84		11.453	11.493	-323.65		-1.22	0.000
190.37	31.545	7.524	38.81		11.481	11.507	-364.92		-1.22	0.000
190.65	31.582	6.935	38.77		11.501	11.530	-371.60		-1.22	0.000
190.93	31.615	6.310	38.73		11.517	11.550	-382.55		-1.22	0.000
191.20	31.636	5.685	38.71		11.531	11.568	-388.66		-1.22	0.000
191.48	31.659	5.036	38.69		11.542	11.585	-392.27		-1.22	0.000
191.76	31.683	4.375	38.67		11.552	11.599	-381.65		-1.22	0.000
192.04	31.705	3.714	38.64		11.559	11.608	-384.69		-1.22	0.000
192.31	31.713	3.017	38.64		11.563	11.614	-377.36		-1.22	0.000
192.58	31.727	2.320	38.62		11.567	11.621	-360.16		-1.22	0.000
192.85	31.736	1.635	38.61		11.562	11.626	-293.03		-1.22	0.000
193.12	31.740	0.950	38.61		11.562	11.629	-263.60		-1.22	0.000
193.39	31.741	0.252	38.61		11.541	11.634	-207.35		-1.22	0.000
193.67	31.742	-0.421	38.61		11.539	11.633	-182.06		-1.22	0.000
193.94	31.742	-1.106	38.61		11.537	11.626	-119.69		-1.22	0.000
194.21	31.742	-1.791	38.61		11.532	11.620	-90.09		-1.22	0.000
194.49	31.742	-2.488	38.61		11.529	11.616	-44.92		-1.22	0.000
194.76	31.728	-3.173	38.62		11.525	11.611	-32.72		-1.22	0.000
195.04	31.708	-3.834	38.64		11.518	11.606	-17.70		-1.22	0.000
195.31	31.697	-4.495	38.65		11.513	11.601	-22.70		-1.22	0.000
195.59	31.669	-5.156	38.68		11.504	11.598	-31.71		-1.22	0.000
195.87	31.640	-5.805	38.71		11.491	11.592	-34.22		-1.22	0.000
196.15	31.609	-6.430	38.74		11.484	11.580	-25.38		-1.22	0.000
196.42	31.587	-7.043	38.76		11.470	11.567	-18.83		-1.22	0.000
196.70	31.551	-7.632	38.80		11.465	11.553	0.34		-1.22	0.000
196.97	31.510	-8.197	38.84		11.461	11.548	6.35		-1.22	0.000
197.25	31.467	-8.750	38.88		11.453	11.543	17.72		-1.22	0.000
197.52	31.438	-9.267	38.91		11.443	11.536	12.95		-1.22	0.000
197.80	31.390	-9.772	38.96		11.418	11.530	-16.51		-1.22	0.000
198.08	31.340	-10.240	39.01		11.395	11.517	-34.85		-1.22	0.000
198.35	31.288	-10.685	39.06		11.368	11.498	-64.88		-1.22	0.000
198.63	31.250	-11.106	39.10		11.340	11.475	-85.88		-1.22	0.000
198.91	31.195	-11.490	39.16		11.313	11.455	-97.14		-1.22	0.000
199.19	31.136	-11.851	39.21		11.284	11.428	-116.17		-1.22	0.000
199.47	31.076	-12.175	39.27		11.289	11.399	-121.98		-1.22	0.000
199.75	31.036	-12.464	39.31		11.261	11.373	-100.43		-1.22	0.000
200.03	30.973	-12.716	39.38		11.231	11.344	-81.17		-1.22	0.000
200.30	30.909	-12.945	39.44		11.198	11.309	-37.13		-1.22	0.000
200.57	30.842	-13.125	39.51		11.171	11.290	-5.92		-1.22	0.000
200.85	30.799	-13.269	39.55		11.141	11.259	80.90		-1.22	0.000
201.13	30.732	-13.389	39.62		11.110	11.228	128.90		-1.22	0.000
201.41	30.664	-13.462	39.69		11.078	11.200	185.22		-1.22	0.000
201.68	30.597	-13.498	39.75		11.046	11.173	198.20		-1.22	0.000
201.96	30.553	-13.510	39.80		11.014	11.143	214.11		-1.22	0.000
202.23	30.486	-13.474	39.86		10.984	11.110	216.76		-1.22	0.000
202.51	30.418	-13.401	39.93		10.951	11.077	204.68		-1.22	0.000
202.79	30.351	-13.293	40.00		10.923	11.045	159.38		-1.22	0.000
203.08	30.285	-13.149	40.07		10.890	11.013	136.92		-1.22	0.000
203.35	30.241	-12.969	40.11		10.852	10.978	99.23		-1.22	0.000
203.63	30.177	-12.752	40.17		10.810	10.946	81.84		-1.22	0.000
203.90	30.114	-12.500	40.24		10.773	10.908	56.93		-1.22	0.000
204.17	30.053	-12.224	40.30		10.736	10.868	56.95		-1.22	0.000
204.45	30.013	-11.899	40.34		10.701	10.848	70.15		-1.22	0.000
204.73	29.954	-11.563	40.40		10.664	10.811	74.45		-1.22	0.000
205.01	29.895	-11.178	40.46		10.629	10.772	78.93		-1.22	0.000
205.29	29.842	-10.769	40.51		10.599	10.737	83.13		-1.22	0.000
205.56	29.805	-10.325	40.54		10.567	10.699	113.44		-1.22	0.000
205.84	29.757	-9.844	40.59		10.538	10.665	143.70		-1.22	0.000
206.13	29.709	-9.351	40.64		10.510	10.629	200.81		-1.22	0.000
206.40	29.664	-8.834	40.69		10.482	10.597	228.79		-1.22	0.000
206.68	29.636	-8.269	40.71		10.454	10.571	283.00		-1.22	0.000
206.96	29.595	-7.704	40.76		10.430	10.543	320.10		-1.22	0.000
207.23	29.559	-7.103	40.79		10.407	10.519	334.83		-1.22	0.000
207.52	29.524	-6.502	40.83		10.389	10.497	344.86		-1.22	0.000
207.79	29.494	-5.877	40.86		10.372	10.472	327.88		-1.22	0.000
208.07	29.476	-5.216	40.87		10.355	10.450	257.86		-1.22	0.000
208.34	29.454	-4.567	40.90		10.341	10.435	212.25		-1.22	0.000
208.62	29.431	-3.906	40.92		10.330	10.430	111.72		-1.22	0.000
208.90	29.414	-3.233	40.94		10.320	10.415	68.59		-1.22	0.000
209.17	29.405	-2.536	40.94		10.313	10.402	-0.54		-1.22	0.000
209.44	29.395	-1.839	40.96		10.329	10.387	-31.12		-1.22	0.000
209.71	29.391	-1.154	40.96		10.324	10.378	-83.11		-1.22	0.000
209.98	29.389	-0.469	40.96		10.322	10.372	-109.11		-1.22	0.000
210.25	29.387	0.216	40.96		10.319	10.367	-162.30		-1.22	0.000
210.52	29.387	0.901	40.96		10.321	10.366	-182.94		-1.22	0.000
210.80	29.387	1.599	40.96		10.319	10.368	-205.75		-1.22	0.000
211.07	29.387	2.272	40.96		10.319	10.370	-214.19		-1.22	0.000
211.34	29.395	2.957	40.96		10.318	10.371	-232.05		-1.22	0.000
211.61	29.414	3.630	40.94		10.319	10.371	-239.18		-1.22	0.000
211.90	29.431	4.291	40.92		10.315	10.371	-274.32		-1.22	0.000
212.17	29.453	4.940	40.90		10.319	10.371	-298.77		-1.22	0.000
212.45	29.480	5.601	40.87		10.329	10.374	-329.24		-1.22	0.000
212.73	29.510	6.238	40.84		10.335	10.384	-342.62		-1.22	0.000
213.01	29.533	6.863	40.82		10.337	10.389	-346.29		-1.22	0.000
213.29	29.569	7.452	40.78		10.338	10.391	-322.47		-1.22	0.000
213.57	29.608	8.041	40.74		10.339	10.391	-302.96		-1.22	0.000
213.85	29.650	8.606	40.70		10.345	10.393	-274.40		-1.22	0.000
214.12	29.680	9.135	40.67		10.362	10.400	-272.88		-1.22	0.000
214.39	29.726	9.651	40.62		10.379	10.410	-277.52		-1.22	0.000
214.67	29.774	10.120	40.58		10.399	10.422	-271.93		-1.22	0.000
214.95	29.827	10.577	40.52		10.417	10.435	-223.10		-1.22	0.000
215.23	29.862	10.998	40.49		10.440	10.439	-201.31		-1.22	0.000
215.51	29.918	11.394	40.43		10.432	10.460	-155.12		-1.22	0.000
215.78	29.976	11.755	40.37		10.456	10.482	-137.33		-1.22	0.000
216.06	30.036	12.091	40.31		10.480	10.507	-111.19		-1.22	0.000
216.34	30.098	12.392	40.25		10.502	10.529	-96.88		-1.22	0.000
216.62	30.139	12.656	40.21		10.526	10.554	-76.35		-1.22	0.000
216.89	30.204	12.885	40.15		10.548	10.576	-60.67		-1.22	0.000
217.17	30.267	13.077	40.08		10.573	10.599	-26.73		-1.22	0.000
217.45	30.333	13.233	40.02		10.597	10.625	-8.05		-1.22	0.000
217.72	30.378	13.365	39.97		10.621	10.648	-13.26		-1.22	0.000
217.99	30.445	13.450	39.91		10.647	10.671	-40.43		-1.22	0.000
218.28	30.513	13.498	39.84		10.674	10.696	-60.06		-1.22	0.000
218.55	30.580	13.510	39.77		10.699	10.722	-119.52		-1.22	0.000
218.82	30.624	13.486	39.73		10.732	10.749	-149.05		-1.22	0.000
219.10	30.692	13.425	39.66		10.758	10.758	-193.76		-1.22	0.000
219.38	30.759	13.329	39.59		10.779	10.783	-195.85		-1.22	0.000
219.66	30.824	13.197	39.53		10.811	10.812	-161.39		-1.22	0.000
219.94	30.869	13.017	39.48		10.848	10.839	-125.95		-1.22	0.000
220.22	30.933	12.825	39.42		10.885	10.871	-75.57		-1.22	0.000
220.49	30.997	12.572	39.35		10.920	10.907	-58.38		-1.22	0.000
220.77	31.059	12.296	39.29		10.959	10.947	-54.87		-1.22	0.000
221.03	31.100	11.995	39.25		10.994	10.987	-46.96		-1.22	0.000
221.31	31.159	11.659	39.19		11.026	11.026	-26.08		-1.22	0.000
221.58	31.215	11.298	39.13		11.059	11.059	1.52		-1.22	0.000
221.86	31.272	10.889	39.08		11.076	11.094	50.82		-1.22	0.000
222.12	31.306	10.469	39.04		11.108	11.129	54.23		-1.22	0.000
222.40	31.359	10.012	38.99		11.140	11.147	12.20		-1.22	0.000
222.67	31.406	9.543	38.94		11.167	11.176	-14.98		-1.22	0.000
222.94	31.438	9.038	38.91		11.193	11.205	-52.58		-1.22	0.000
223.22	31.482	8.510	38.87		11.214	11.231	-54.07		-1.22	0.000
223.49	31.522	7.969	38.83		11.236	11.254	-17.36		-1.22	0.000
223.76	31.549	7.392	38.80		11.260	11.277	5.44		-1.22	0.000
224.04	31.585	6.791	38.77		11.278	11.301	56.46		-1.22	0.000
224.32	31.617	6.190	38.73		11.266	11.320	73.12		-1.22	0.000
224.59	31.644	5.553	38.71		11.285	11.336	60.63		-1.22	0.000
224.86	31.662	4.904	38.69		11.297	11.353	41.98		-1.22	0.000
225.13	31.686	4.255	38.66		11.308	11.360	58.33		-1.22	0.000
225.40	31.704	3.594	38.65		11.314	11.373	107.40		-1.22	0.000
225.68	31.717	2.921	38.63		11.322	11.384	112.51		-1.22	0.000
225.95	31.726	2.236	38.62		11.326	11.392	97.27		-1.22	0.000
226.22	31.735	1.550	38.62		11.329	11.401	81.06		-1.22	0.000
226.49	31.737	0.877	38.61		11.328	11.408	38.49		-1.22	0.000
226.76	31.744	0.180	38.61		11.349	11.410	7.86		-1.22	0.000
227.03	31.744	-0.505	38.61		11.347	11.413	-87.67		-1.22	0.000
227.30	31.744	-1.190	38.61		11.343	11.413	-132.02		-1.22	0.000
227.57	31.744	-1.863	38.61		11.340	11.412	-206.08		-1.22	0.000
227.84	31.744	-2.548	38.61		11.335	11.409	-241.82		-1.22	0.000
228.12	31.724	-3.221	38.63		11.330	11.405	-314.84		-1.22	0.000
228.39	31.705	-3.894	38.64		11.326	11.402	-357.00		-1.22	0.000
228.67	31.690	-4.555	38.66		11.320	11.398	-402.82		-1.22	0.000
228.95	31.667	-5.204	38.68		11.310	11.395	-418.08		-1.22	0.000
229.22	31.638	-5.853	38.71		11.296	11.388	-440.14		-1.22	0.000
229.50	31.606	-6.478	38.74		11.285	11.379	-444.88		-1.22	0.000
229.77	31.585	-7.091	38.77		11.278	11.368	-447.19		-1.22	0.000
230.06	31.546	-7.680	38.80		11.278	11.361	-437.86		-1.22	0.000
230.34	31.505	-8.245	38.84		11.276	11.355	-403.50		-1.22	0.000
230.61	31.464	-8.798	38.89		11.271	11.348	-373.69		-1.22	0.000
230.89	31.433	-9.327	38.92		11.260	11.344	-301.11		-1.22	0.000
231.16	31.386	-9.820	38.96		11.238	11.339	-259.12		-1.22	0.000
231.45	31.335	-10.300	39.02		11.216	11.325	-185.66		-1.22	0.000
231.72	31.282	-10.733	39.07		11.191	11.306	-175.00		-1.22	0.000
232.00	31.246	-11.154	39.10		11.168	11.284	-189.28		-1.22	0.000
232.28	31.190	-11.526	39.16		11.142	11.263	-240.45		-1.22	0.000
232.56	31.131	-11.887	39.22		11.115	11.235	-250.51		-1.22	0.000
232.84	31.071	-12.212	39.28		11.081	11.209	-220.48		-1.22	0.000
233.12	31.009	-12.500	39.34		11.054	11.179	-194.94		-1.22	0.000
233.39	30.967	-12.752	39.38		11.024	11.153	-151.98		-1.22	0.000
233.68	30.903	-12.969	39.45		10.994	11.124	-143.88		-1.22	0.000
233.96	30.836	-13.149	39.51		10.965	11.096	-145.72		-1.22	0.000
234.23	30.769	-13.293	39.58		10.938	11.070	-166.16		-1.22	0.000
234.51	30.726	-13.401	39.62		10.909	11.041	-194.40		-1.22	0.000
234.79	30.659	-13.474	39.69		10.878	11.010	-194.68		-1.22	0.000
235.06	30.591	-13.510	39.76		10.848	10.981	-175.73		-1.22	0.000
235.34	30.524	-13.498	39.83		10.822	10.953	-153.38		-1.22	0.000
235.62	30.480	-13.462	39.87		10.794	10.939	-133.27		-1.22	0.000
235.90	30.413	-13.377	39.94		10.763	10.908	-137.73		-1.22	0.000
236.18	30.346	-13.269	40.00		10.733	10.880	-140.70		-1.22	0.000
236.46	30.280	-13.113	40.07		10.694	10.848	-144.43		-1.22	0.000
236.73	30.215	-12.933	40.13		10.689	10.817	-145.83		-1.22	0.000
237.01	30.172	-12.704	40.18		10.649	10.782	-154.71		-1.22	0.000
237.29	30.109	-12.452	40.24		10.611	10.745	-151.30		-1.22	0.000
237.58	30.049	-12.163	40.30		10.574	10.705	-157.01		-1.22	0.000
237.86	29.987	-11.827	40.36		10.538	10.666	-167.11		-1.22	0.000
238.14	29.949	-11.466	40.40		10.504	10.629	-207.50		-1.22	0.000
238.42	29.890	-11.082	40.46		10.469	10.593	-242.05		-1.22	0.000
238.70	29.837	-10.649	40.51		10.436	10.559	-320.13		-1.22	0.000
238.98	29.783	-10.192	40.57		10.404	10.524	-407.13		-1.22	0.000
239.27	29.736	-9.700	40.61		10.373	10.490	-457.51		-1.22	0.000
239.55	29.704	-9.195	40.65		10.348	10.462	-550.00		-1.22	0.000
239.82	29.659	-8.654	40.69		10.318	10.433	-578.88		-1.22	0.000
240.10	29.618	-8.089	40.73		10.292	10.406	-589.12		-1.22	0.000
240.38	29.580	-7.512	40.77		10.269	10.381	-572.21		-1.22	0.000
240.67	29.544	-6.923	40.81		10.247	10.360	-503.94		-1.22	0.000
240.94	29.519	-6.298	40.83		10.230	10.353	-454.80		-1.22	0.000
241.22	29.491	-5.649	40.86		10.216	10.332	-358.83		-1.22	0.000
241.49	29.465	-5.012	40.88		10.227	10.311	-321.64		-1.22	0.000
241.77	29.446	-4.339	40.90		10.216	10.297	-259.88		-1.22	0.000
242.05	29.428	-3.678	40.92		10.203	10.281	-191.88		-1.22	0.000
242.32	29.418	-2.993	40.93		10.196	10.268	-149.25		-1.22	0.000
242.59	29.405	-2.296	40.94		10.187	10.255	-107.38		-1.22	0.000
242.87	29.395	-1.611	40.96		10.184	10.247	-97.80		-1.22	0.000
243.14	29.387	-0.913	40.96		10.182	10.243	-112.09		-1.22	0.000
243.42	29.386	-0.228	40.96		10.181	10.240	-132.67		-1.22	0.000
243.69	29.386	0.469	40.96		10.182	10.236	-208.66		-1.22	0.000
243.96	29.386	1.166	40.96		10.182	10.231	-253.70		-1.22	0.000
244.23	29.386	1.851	40.96		10.165	10.231	-283.46		-1.22	0.000
244.50	29.387	2.524	40.96		10.165	10.230	-278.73		-1.22	0.000
244.77	29.408	3.197	40.94		10.165	10.234	-261.18		-1.22	0.000
245.04	29.418	3.870	40.93		10.170	10.238	-267.59		-1.22	0.000
245.32	29.441	4.531	40.91		10.175	10.239	-281.09		-1.22	0.000
245.60	29.465	5.168	40.88		10.177	10.239	-274.86		-1.22	0.000
245.87	29.482	5.817	40.87		10.183	10.240	-237.30		-1.22	0.000
246.15	29.513	6.442	40.84		10.185	10.244	-198.84		-1.22	0.000
246.43	29.546	7.055	40.80		10.189	10.249	-95.75		-1.22	0.000
246.70	29.585	7.644	40.77		10.190	10.251	-46.46		-1.22	0.000
246.97	29.624	8.221	40.73		10.193	10.254	18.75		-1.22	0.000
247.25	29.651	8.762	40.70		10.202	10.256	35.30		-1.22	0.000
247.52	29.696	9.279	40.65		10.217	10.261	43.98		-1.22	0.000
247.79	29.745	9.772	40.61		10.235	10.271	51.28		-1.22	0.000
248.07	29.780	10.228	40.57		10.250	10.284	87.04		-1.22	0.000
248.34	29.831	10.673	40.52		10.269	10.299	87.59		-1.22	0.000
248.62	29.885	11.094	40.47		10.291	10.314	62.44		-1.22	0.000
248.89	29.941	11.478	40.41		10.313	10.335	39.19		-1.22	0.000
249.16	29.981	11.827	40.37		10.336	10.355	6.85		-1.22	0.000
249.43	30.041	12.151	40.31		10.363	10.381	-0.35		-1.22	0.000
249.71	30.103	12.428	40.25		10.388	10.405	20.96		-1.22	0.000
249.97	30.144	12.680	40.21		10.413	10.418	48.23		-1.22	0.000
250.24	30.209	12.909	40.14		10.438	10.443	65.82		-1.22	0.000
250.52	30.274	13.089	40.08		10.462	10.468	58.94		-1.22	0.000
250.79	30.318	13.245	40.03		10.486	10.493	6.20		-1.22	0.000
251.06	30.383	13.365	39.97		10.509	10.518	-30.13		-1.22	0.000
251.34	30.450	13.450	39.90		10.535	10.544	-54.72		-1.22	0.000
251.61	30.518	13.498	39.83		10.530	10.571	-56.32		-1.22	0.000
251.89	30.563	13.510	39.79		10.554	10.592	-49.35		-1.22	0.000
252.16	30.631	13.486	39.72		10.581	10.617	-55.87		-1.22	0.000
252.43	30.697	13.425	39.65		10.608	10.631	-96.95		-1.22	0.000
252.71	30.764	13.329	39.59		10.634	10.658	-131.38		-1.22	0.000
252.98	30.810	13.197	39.54		10.667	10.685	-217.39		-1.22	0.000
253.26	30.874	13.029	39.48		10.707	10.711	-279.26		-1.22	0.000
253.54	30.939	12.825	39.41		10.746	10.743	-301.74		-1.22	0.000
253.82	31.001	12.584	39.35		10.786	10.783	-327.87		-1.22	0.000
254.09	31.044	12.308	39.31		10.824	10.823	-334.92		-1.22	0.000
254.36	31.105	12.007	39.24		10.858	10.860	-339.61		-1.22	0.000
254.65	31.163	11.671	39.19		10.884	10.896	-346.13		-1.22	0.000
254.93	31.221	11.298	39.13		10.915	10.930	-365.68		-1.22	0.000
255.21	31.258	10.889	39.09		10.946	10.964	-373.91		-1.22	0.000
255.49	31.312	10.445	39.04		10.979	11.000	-354.57		-1.22	0.000
255.76	31.362	9.988	38.99		11.005	11.030	-332.87		-1.22	0.000
256.05	31.412	9.483	38.94		11.030	11.059	-271.85		-1.22	0.000
256.32	31.442	8.978	38.91		11.055	11.087	-245.50		-1.22	0.000
256.60	31.485	8.438	38.87		11.073	11.114	-183.98		-1.22	0.000
256.88	31.526	7.873	38.82		11.094	11.125	-129.89		-1.22	0.000
257.16	31.564	7.284	38.79		11.115	11.147	-105.82		-1.22	0.000
257.44	31.597	6.671	38.75		11.132	11.171	-64.17		-1.22	0.000
257.71	31.619	6.046	38.73		11.150	11.190	-56.34		-1.22	0.000
257.98	31.646	5.409	38.70		11.164	11.212	-41.28		-1.22	0.000
258.26	31.671	4.772	38.68		11.188	11.230	-28.59		-1.22	0.000
258.52	31.683	4.111	38.67		11.200	11.245	6.58		-1.22	0.000
258.80	31.701	3.438	38.65		11.207	11.256	27.59		-1.22	0.000
259.06	31.719	2.776	38.63		11.215	11.268	57.31		-1.22	0.000
259.33	31.727	2.091	38.62		11.220	11.275	61.23		-1.22	0.000
259.60	31.736	1.418	38.61		11.223	11.279	41.21		-1.22	0.000
259.87	31.738	0.745	38.61		11.223	11.283	17.18		-1.22	0.000
260.14	31.740	0.060	38.61		11.222	11.287	-37.54		-1.22	0.000
260.41	31.740	-0.613	38.61		11.199	11.287	-44.28		-1.22	0.000
260.68	31.740	-1.298	38.61		11.197	11.286	-22.57		-1.22	0.000
260.95	31.740	-1.995	38.61		11.195	11.285	-12.01		-1.22	0.000
261.22	31.738	-2.668	38.61		11.193	11.284	-25.31		-1.22	0.000
261.50	31.719	-3.341	38.63		11.191	11.281	-42.42		-1.22	0.000
261.77	31.700	-4.002	38.65		11.188	11.276	-70.91		-1.22	0.000
262.05	31.687	-4.663	38.66		11.187	11.275	-74.59		-1.22	0.000
262.33	31.662	-5.325	38.69		11.182	11.270	-37.02		-1.22	0.000
262.60	31.632	-5.962	38.72		11.168	11.265	-4.02		-1.22	0.000
262.87	31.601	-6.587	38.75		11.170	11.258	71.34		-1.22	0.000
263.15	31.578	-7.188	38.77		11.165	11.250	93.49		-1.22	0.000
263.44	31.541	-7.764	38.81		11.160	11.243	71.19		-1.22	0.000
263.71	31.500	-8.341	38.85		11.157	11.235	35.33		-1.22	0.000
263.99	31.456	-8.894	38.89		11.152	11.232	-54.69		-1.22	0.000
264.27	31.410	-9.399	38.94		11.135	11.228	-96.19		-1.22	0.000
264.55	31.380	-9.892	38.97		11.113	11.220	-167.13		-1.22	0.000
264.83	31.327	-10.373	39.02		11.088	11.204	-190.93		-1.22	0.000
265.11	31.276	-10.817	39.07		11.063	11.185	-222.59		-1.22	0.000
265.39	31.221	-11.226	39.13		11.035	11.164	-234.96		-1.22	0.000
265.68	31.182	-11.611	39.17		11.009	11.141	-234.29		-1.22	0.000
265.95	31.123	-11.959	39.23		10.982	11.112	-220.15		-1.22	0.000
266.24	31.063	-12.272	39.29		10.953	11.088	-198.60		-1.22	0.000
266.52	31.001	-12.548	39.35		10.926	11.061	-138.72		-1.22	0.000
266.80	30.937	-12.800	39.41		10.895	11.047	-95.57		-1.22	0.000
267.07	30.895	-13.017	39.46		10.867	11.019	-10.75		-1.22	0.000
267.35	30.828	-13.185	39.52		10.870	10.988	27.97		-1.22	0.000
267.62	30.763	-13.317	39.59		10.846	10.958	96.18		-1.22	0.000
267.90	30.696	-13.413	39.65		10.821	10.932	114.39		-1.22	0.000
268.17	30.650	-13.486	39.70		10.790	10.905	142.20		-1.22	0.000
268.45	30.582	-13.510	39.77		10.759	10.875	131.22		-1.22	0.000
268.73	30.515	-13.498	39.83		10.733	10.845	119.27		-1.22	0.000
269.01	30.449	-13.450	39.90		10.707	10.818	90.80		-1.22	0.000
269.28	30.404	-13.365	39.95		10.676	10.791	83.06		-1.22	0.000
269.56	30.337	-13.245	40.01		10.646	10.760	66.05		-1.22	0.000
