CALC_ID v. 1.00a
Mon Oct 28 12:01:07 2013
Beff estimated from interpolated measured undulator effective magnetic fields.
Units are in Gauss and mm.

 Gap                 8.00        8.25        8.50        8.75        9.00        9.25        9.50        9.75       10.00       10.25       10.50       10.75       11.00       11.25       11.50       11.75       12.00       12.25       12.50       12.75       13.00       13.25       13.50       13.75       14.00       14.25       14.50       14.75       15.00       15.25       15.50       15.75       16.00       16.25       16.50       16.75       17.00       17.25       17.50       17.75       18.00       18.25       18.50       18.75       19.00       19.25       19.50       19.75       20.00       20.25       20.50       20.75       21.00       21.25       21.50       21.75       22.00       22.25       22.50       22.75       23.00       23.25       23.50       23.75       24.00       24.25       24.50       24.75       25.00
 Period
         17.0     5283.81     5039.49     4806.47     4584.22     4372.25     4170.08     3977.26     3793.23     3617.71     3450.31     3290.66     3138.93     2994.20     2856.14     2724.44     2600.00     2481.24     2367.90     2259.75     2156.53     2058.03     1964.02     1874.31     1789.51     1708.55     1631.25     1557.45     1486.99     1419.72     1355.49     1294.16     1235.90     1180.26     1127.12     1076.38     1027.92      981.64      937.45      895.25      854.94      816.45      779.70      744.59      711.13      679.16      648.63      619.48      591.63      565.04      539.64      515.39      492.22      470.10      448.97      428.79      409.51      391.11      373.53      356.74      340.70      325.39      310.76      296.79      283.45      270.71      258.55      246.92      235.91      225.39
         17.2     5384.53     5138.09     4902.94     4678.55     4464.42     4260.10     4065.13     3878.95     3701.31     3531.79     3370.04     3216.23     3069.44     2929.35     2795.65     2669.26     2548.58     2433.36     2323.35     2218.31     2118.02     2022.27     1930.84     1844.39     1761.82     1682.94     1607.59     1535.62     1466.87     1401.19     1338.46     1278.84     1221.89     1167.46     1115.47     1065.78     1018.31      972.96      929.62      888.22      848.66      810.86      774.74      740.31      707.40      675.95      645.91      617.20      589.76      563.55      538.50      514.56      491.69      469.83      448.95      428.99      409.92      391.70      374.29      357.65      341.75      326.56      312.05      298.18      284.92      272.26      260.16      248.68      237.72
         18.0     5782.65     5528.33     5285.19     5052.74     4830.52     4618.07     4414.96     4220.67     4034.92     3857.35     3687.60     3525.83     3371.16     3223.28     3081.88     2947.99     2819.92     2697.41     2580.22     2468.12     2360.89     2258.32     2160.21     2067.34     1978.46     1893.41     1812.01     1734.11     1659.56     1588.21     1519.93     1455.00     1392.84     1333.33     1276.37     1221.84     1169.64     1119.67     1071.84     1026.05      982.21      940.25      900.08      861.77      825.08      789.96      756.33      724.14      693.31      663.80      635.54      608.49      582.59      557.79      534.04      511.31      489.54      468.70      448.75      429.65      411.36      393.85      377.08      361.03      345.66      330.95      316.86      303.49      290.69
         18.5     6027.39     5768.56     5520.85     5283.78     5056.89     4839.74     4631.92     4432.90     4242.43     4060.14     3885.69     3719.25     3559.93     3407.44     3261.48     3123.14     2990.66     2863.81     2742.33     2626.01     2514.62     2407.95     2305.81     2209.07     2116.39     2027.60     1942.53     1861.03     1782.95     1708.15     1636.48     1568.30     1502.96     1440.34     1380.33     1322.82     1267.70     1214.88     1164.27     1115.76     1069.27     1024.72      982.03      941.30      902.26      864.84      828.97      794.60      761.64      730.05      699.78      670.76      642.94      616.27      590.71      566.22      542.73      520.23      498.65      477.97      458.15      439.15      420.93      403.48      386.74      370.70      355.33      340.73      326.73
         19.0     6268.78     6005.77     5753.80     5512.40     5281.12     5059.55     4847.28     4643.79     4448.85     4262.09     4083.17     3912.26     3748.51     3591.61     3441.28     3298.66     3161.95     3030.91     2905.29     2784.89     2669.47     2558.84     2452.79     2352.30     2255.92     2163.49     2074.84     1989.83     1908.30     1830.11     1755.13     1683.76     1615.30     1549.62     1486.61     1426.16     1368.17     1312.54     1259.17     1207.97     1158.86     1111.74     1066.53     1023.41      982.03      942.32      904.22      867.66      832.58      798.91      766.61      735.61      705.87      677.33      649.94      623.66      598.45      574.25      551.03      528.75      507.37      486.86      467.17      448.28      430.16      412.76      396.07      380.22      365.00
         19.5     6506.73     6239.83     5983.88     5738.43     5503.04     5277.31     5060.84     4853.14     4653.96     4462.95     4279.78     4104.63     3936.64     3775.52     3621.00     3474.28     3333.51     3198.44     3068.85     2944.50     2825.19     2710.72     2600.89     2496.75     2396.78     2300.81     2208.69     2120.26     2035.36     1953.87     1875.63     1801.16     1729.63     1660.95     1595.00     1531.66     1470.84     1412.44     1356.35     1302.49     1250.77     1201.11     1153.41     1107.92     1064.21     1022.23      981.91      943.18      905.97      870.23      835.91      802.93      771.26      740.84      711.61      683.54      656.58      630.68      605.80      581.90      558.95      536.90      515.72      495.38      475.84      457.07      439.04      421.90      405.43
         20.0     6741.14     6470.63     6210.97     5961.73     5722.50     5492.86     5272.44     5060.75     4857.56     4662.53     4475.33     4296.13     4124.10     3958.96     3800.43     3649.78     3505.11     3366.17     3232.74     3104.60     2981.53     2863.35     2749.85     2642.19     2538.74     2439.34     2343.84     2252.07     2163.90     2079.17     1997.77     1920.25     1845.74     1774.12     1705.28     1639.11     1575.51     1514.37     1455.61     1399.13     1344.84     1292.66     1242.50     1194.65     1148.65     1104.42     1061.89     1021.00      981.68      943.88      907.53      872.58      838.98      806.67      775.61      745.74      717.03      689.42      662.87      637.34      612.80      589.20      566.51      544.70      523.72      503.55      484.16      465.72      447.99
         20.5     6971.95     6698.09     6434.98     6182.20     5939.36     5706.06     5481.92     5266.47     5059.50     4860.66     4669.63     4486.57     4310.69     4141.71     3979.34     3824.94     3676.53     3533.87     3396.75     3264.95     3138.27     3016.50     2899.46     2788.39     2681.57     2578.84     2480.06     2385.05     2293.68     2205.82     2121.32     2040.84     1963.41     1888.91     1817.25     1748.30     1681.97     1618.16     1556.76     1497.70     1440.88     1386.21     1333.62     1283.45     1235.18     1188.72     1144.00     1100.97     1059.56     1019.71      981.35      944.44      908.91      874.72      841.82      810.16      779.68      750.36      722.13      694.97      668.83      643.67      619.46      596.16      573.73      552.15      531.38      511.63      492.60
         21.0     7199.11     6922.14     6655.82     6399.75     6153.53     5916.79     5689.15     5470.17     5259.61     5057.17     4862.51     4675.79     4496.24     4323.59     4157.57     3999.57     3847.57     3701.35     3560.69     3425.37     3295.20     3169.97     3049.50     2935.14     2825.06     2719.11     2617.14     2518.99     2424.52     2333.60     2246.08     2162.71     2082.44     2005.14     1930.71     1859.05     1790.05     1723.60     1659.63     1598.02     1538.71     1481.59     1426.60     1374.16     1323.64     1274.98     1228.11     1182.96     1139.47     1097.58     1057.23     1018.36      980.92      944.86      910.13      876.67      844.44      813.40      783.49      754.69      726.94      700.22      674.48      649.68      625.80      602.79      580.63      559.54      539.22
         21.5     7422.60     7142.75     6873.45     6614.31     6364.94     6124.96     5894.04     5671.72     5457.79     5251.93     5053.83     4863.64     4680.60     4504.45     4334.93     4173.49     4018.06     3868.43     3724.36     3585.66     3452.13     3323.56     3199.79     3082.25     2969.03     2859.96     2754.90     2653.70     2556.22     2462.32     2371.87     2285.69     2202.65     2122.62     2045.49     1971.17     1899.55     1830.54     1764.03     1699.93     1638.17     1578.65     1521.29     1466.60     1413.88     1363.05     1314.05     1266.81     1221.27     1177.36     1135.04     1094.23     1054.89     1016.97      980.41      945.16      911.19      878.43      846.85      816.41      787.06      758.76      731.48      705.19      679.84      655.40      631.83      609.41      587.77
         22.0     7642.40     7359.89     7087.83     6825.82     6573.50     6330.51     6096.50     5871.04     5653.92     5444.84     5243.48     5049.98     4863.62     4684.14     4511.28     4346.56     4187.85     4034.94     3887.61     3745.66     3608.89     3477.12     3350.15     3229.55     3113.28     3001.21     2893.16     2789.01     2688.60     2591.81     2498.51     2409.60     2323.86     2241.17     2161.42     2084.50     2010.33     1938.79     1869.80     1803.27     1739.10     1677.22     1617.54     1560.64     1505.75     1452.79     1401.69     1352.38     1304.82     1258.92     1214.64     1171.92     1130.70     1090.93     1052.56     1015.53      979.81      945.35      912.10      880.02      849.07      819.20      790.39      762.59      735.76      709.88      684.92      661.14      638.19
         22.5     7858.50     7573.54     7298.92     7034.25     6779.18     6533.35     6296.45     6068.04     5847.92     5635.78     5431.34     5234.71     5045.19     4862.54     4686.50     4518.64     4356.79     4200.74     4050.28     3905.21     3765.33     3630.47     3500.43     3376.87     3257.67     3142.69     3031.75     2924.74     2821.50     2721.91     2625.83     2534.27     2445.91     2360.63     2278.32     2198.88     2122.21     2048.22     1976.80     1907.87     1841.35     1777.15     1715.19     1656.13     1599.11     1544.05     1490.89     1439.55     1389.99     1342.13     1295.92     1251.30     1208.22     1166.62     1126.45     1087.67     1050.22     1014.06      979.14      945.43      912.88      881.45      851.10      821.79      793.50      766.18      739.80      714.67      690.40
         23.0     8070.93     7783.71     7506.71     7239.57     6981.93     6733.46     6493.84     6262.66     6039.71     5824.69     5617.33     5417.72     5225.21     5039.54     4860.46     4689.61     4524.76     4365.71     4212.24     4064.18     3921.31     3783.47     3650.48     3524.08     3402.05     3284.25     3170.53     3060.74     2954.76     2852.45     2753.68     2659.56     2568.65     2480.85     2396.05     2314.15     2235.05     2158.65     2084.87     2013.61     1944.78     1878.30     1814.10     1752.93     1693.82     1636.71     1581.52     1528.19     1476.66     1426.86     1378.75     1332.26     1287.34     1243.93     1201.98     1161.45     1122.29     1084.44     1047.88     1012.54      978.40      945.41      913.53      882.73      852.96      824.20      796.41      769.93      744.34
         23.5     8279.69     7990.39     7711.20     7441.76     7181.74     6930.80     6688.63     6454.84     6229.22     6011.49     5801.37     5598.95     5403.58     5215.03     5033.07     4859.36     4691.64     4529.72     4373.38     4222.44     4076.71     3936.01     3800.16     3671.03     3546.27     3425.76     3309.35     3196.89     3088.25     2983.30     2881.92     2785.31     2691.93     2601.69     2514.47     2430.18     2348.71     2269.97     2193.87     2120.32     2049.24     1980.54     1914.15     1850.91     1789.76     1730.62     1673.45     1618.16     1564.70     1513.00     1463.01     1414.68     1367.94     1322.74     1279.04     1236.78     1195.92     1156.41     1118.20     1081.26     1045.54     1010.99      977.59      945.29      914.06      883.86      854.66      826.84      799.92
         24.0     8484.83     8193.61     7912.39     7640.83     7378.58     7125.33     6880.78     6644.54     6416.42     6196.13     5983.40     5778.30     5580.23     5388.95     5204.23     5027.80     4857.35     4692.68     4533.59     4379.89     4231.41     4087.96     3949.37     3817.60     3690.22     3567.10     3448.08     3333.03     3221.83     3114.33     3010.42     2911.40     2815.63     2723.01     2633.44     2546.82     2463.05     2382.03     2303.68     2227.90     2154.62     2083.74     2015.20     1949.94     1886.79     1825.68     1766.56     1709.35     1653.99     1600.42     1548.59     1498.44     1449.91     1402.96     1357.52     1313.56     1271.02     1229.85     1190.02     1151.48     1114.19     1078.11     1043.19     1009.41      976.72      945.09      914.48      885.32      857.08
         24.5     8686.36     8393.39     8110.31     7836.77     7572.46     7317.06     7070.27     6831.74     6601.26     6378.56     6163.36     5955.73     5755.10     5561.22     5373.87     5194.85     5021.79     4854.49     4692.77     4536.43     4385.30     4239.21     4097.99     3963.68     3833.78     3708.14     3586.61     3469.07     3355.38     3245.41     3139.05     3037.70     2939.61     2844.70     2752.85     2663.96     2577.95     2494.71     2414.16     2336.21     2260.78     2187.78     2117.14     2049.90     1984.80     1921.76     1860.73     1801.64     1744.42     1689.02     1635.38     1583.44     1533.15     1484.46     1437.32     1391.67     1347.47     1304.68     1263.24     1223.12     1184.28     1146.67     1110.25     1074.99     1040.85     1007.80      975.79      945.29      915.74
         25.0     8884.33     8589.76     8304.96     8029.60     7763.37     7505.96     7257.10     7016.42     6783.72     6558.74     6341.22     6131.19     5928.12     5731.77     5541.93     5360.44     5184.88     5015.08     4850.83     4691.97     4538.31     4389.68     4245.92     4109.18     3976.85     3848.78     3724.84     3604.88     3488.79     3376.44     3267.71     3164.10     3063.77     2966.63     2872.56     2781.48     2693.29     2607.89     2525.20     2445.14     2367.61     2292.54     2219.85     2150.68     2083.68     2018.76     1955.86     1894.92     1835.88     1778.68     1723.27     1669.57     1617.56     1567.16     1518.33     1471.03     1425.19     1380.79     1337.77     1296.09     1255.71     1216.59     1178.68     1141.96     1106.38     1071.91     1038.51     1006.68      975.83
         25.5     9078.79     8782.76     8496.38     8219.34     7951.33     7692.06     7441.24     7198.55     6963.77     6736.64     6516.93     6304.64     6099.26     5900.57     5708.35     5524.50     5346.57     5174.37     5007.72     4846.43     4690.34     4539.27     4393.08     4254.01     4119.34     3988.93     3862.66     3740.38     3621.97     3507.31     3396.28     3290.49     3188.00     3088.70     2992.49     2899.28     2808.97     2721.47     2636.70     2554.57     2475.00     2397.91     2323.22     2252.18     2183.31     2116.55     2051.83     1989.09     1928.27     1869.31     1812.15     1756.74     1703.02     1650.95     1600.47     1551.53     1504.09     1458.10     1413.51     1370.29     1328.39     1287.77     1248.39     1210.22     1173.22     1137.34     1102.57     1069.42     1037.27
         26.0     9269.79     8972.42     8684.59     8406.00     8136.35     7875.34     7622.71     7378.13     7141.40     6912.26     6690.47     6476.03     6268.47     6067.55     5873.08     5686.99     5506.79     5332.30     5163.35     4999.74     4841.32     4687.92     4539.38     4398.07     4261.16     4128.51     3999.98     3875.46     3754.82     3637.93     3524.68     3416.79     3312.20     3210.81     3112.52     3017.24     2924.88     2835.35     2748.55     2664.42     2582.86     2503.79     2427.15     2354.28     2283.61     2215.05     2148.56     2084.06     2021.49     1960.81     1901.94     1844.84     1789.46     1735.74     1683.63     1633.09     1584.06     1536.51     1490.38     1445.64     1402.24     1360.15     1319.31     1279.71     1241.29     1204.03     1167.88     1133.43     1100.00
         26.5     9457.36     9158.79     8869.64     8589.62     8318.45     8055.83     7801.50     7555.16     7316.60     7085.57     6861.83     6645.36     6435.72     6232.70     6036.07     5847.85     5665.50     5488.83     5317.67     5151.84     4991.19     4835.55     4684.76     4541.30     4402.23     4267.42     4136.73     4010.05     3887.25     3768.21     3652.82     3542.89     3436.27     3332.86     3232.56     3135.28     3040.93     2949.42     2860.66     2774.57     2691.08     2610.09     2531.55     2456.90     2384.46     2314.16     2245.93     2179.71     2115.44     2053.07     1992.54     1933.79     1876.77     1821.44     1767.74     1715.62     1665.03     1615.94     1568.30     1522.06     1477.18     1433.63     1391.36     1350.33     1310.52     1271.88     1234.38     1198.64     1163.93
         27.0     9641.58     9341.91     9051.56     8770.24     8497.65     8233.54     7977.64     7729.65     7489.37     7256.56     7030.99     6812.60     6601.00     6395.97     6197.31     6007.06     5822.64     5643.89     5470.63     5302.69     5139.90     4982.11     4829.16     4683.63     4542.49     4405.60     4272.84     4144.07     4019.19     3898.07     3780.60     3668.72     3560.14     3454.78     3352.53     3253.32     3157.03     3063.60     2972.94     2884.95     2799.57     2716.72     2636.32     2559.95     2485.79     2413.79     2343.87     2275.97     2210.04     2146.02     2083.86     2023.49     1964.88     1907.96     1852.69     1799.02     1746.91     1696.31     1647.17     1599.46     1553.12     1508.13     1464.45     1422.03     1380.83     1340.83     1301.99     1264.98     1229.01
         27.5     9822.49     9521.84     9230.40     8947.87     8674.00     8408.50     8151.13     7901.61     7659.72     7425.24     7197.94     6977.74     6764.28     6557.35     6356.75     6164.57     5978.20     5797.47     5622.19     5452.22     5287.39     5127.53     4972.52     4825.01     4681.88     4542.99     4408.23     4277.46     4150.57     4027.45     3907.97     3794.20     3683.73     3576.48     3472.35     3371.26     3273.11     3177.81     3085.29     2995.47     2908.26     2823.59     2741.38     2663.33     2587.51     2513.85     2442.28     2372.75     2305.20     2239.57     2175.81     2113.87     2053.69     1995.22     1938.42     1883.23     1829.62     1777.53     1726.93     1677.76     1630.00     1583.59     1538.51     1494.71     1452.16     1410.82     1370.65     1332.37     1295.16
